Data File Name,CADAM_11jan17_1_DNA 12000_DE72901785_2017-01-11_10-14-38.xad
Data File Path,C:\Program Files (x86)\Agilent\2100 bioanalyzer\2100 expert\data\2017-01-11
Date Created,"Wednesday, January 11, 2017 9:14:38 AM"
Date Last Modified,"Wednesday, January 11, 2017 9:36:50 AM"
Version Created,B.02.08.SI648
Version Last Modified,B.02.08.SI648
 
Assay Name,DNA 12000 Series II
Assay Path,C:\Program Files (x86)\Agilent\2100 bioanalyzer\2100 expert\assays\dsDNA
Assay Title,DNA 12000
Assay Version,2.4
 
Number of Samples Run,6
 
Sample Name,Sample 4
Number of Events,1581
 
Time,Value
20,-0.2995758
20.05,-0.2995758
20.1,-0.2995758
20.15,-0.2995758
20.2,-0.2995758
20.25,-0.2995758
20.3,-0.2995758
20.35,-0.2995758
20.4,-0.2995758
20.45,-0.2995758
20.5,-0.2995758
20.55,-0.2995758
20.6,-0.2995758
20.65,-0.2995758
20.7,-0.2995758
20.75,-0.2995758
20.8,-0.2995758
20.85,-0.2995758
20.9,-0.2995758
20.95,-0.2995758
21,-0.2995758
21.05,-0.2995758
21.1,-0.2995758
21.15,-0.2995758
21.2,-0.2995758
21.25,-0.2995758
21.3,-0.2995758
21.35,-0.2995758
21.4,-0.2995758
21.45,-0.2995758
21.5,-0.2995758
21.55,-0.2995758
21.6,-0.2995758
21.65,-0.2995758
21.7,-0.2995758
21.75,-0.2995758
21.8,-0.2995758
21.85,-0.2995758
21.9,-0.2995758
21.95,-0.2995758
22,-0.2995758
22.05,-0.2995758
22.1,-0.2995758
22.15,-0.2995758
22.2,-0.2995758
22.25,-0.2995758
22.3,-0.2995758
22.35,-0.2995758
22.4,-0.2995758
22.45,-0.2995758
22.5,-0.2995758
22.55,-0.2995758
22.6,-0.2995758
22.65,-0.2995758
22.7,-0.2995758
22.75,-0.2282407
22.8,-0.0709708
22.85,9.009422E-02
22.9,0.1447547
22.95,0.1336939
23,8.221598E-03
23.05,-7.247715E-02
23.1,-0.1718576
23.15,-0.1656071
23.2,-6.681053E-02
23.25,1.548496E-02
23.3,1.689443E-02
23.35,-1.998297E-02
23.4,-0.1511725
23.45,-0.2866321
23.5,-0.283953
23.55,-0.2507747
23.6,-0.2268779
23.65,-0.2017652
23.7,-0.1707341
23.75,-7.900576E-02
23.8,-0.1011942
23.85,-0.16954
23.9,-0.2383817
23.95,-0.2224247
24,-0.2001523
24.05,-0.2243781
24.1,-0.2167552
24.15,-0.1822587
24.2,-0.2048213
24.25,-0.224596
24.3,-0.2162619
24.35,-0.1891621
24.4,-0.150485
24.45,-0.1399712
24.5,-0.1955848
24.55,-0.2161661
24.6,-0.2641234
24.65,-0.2827549
24.7,-0.2958237
24.75,-0.3030186
24.8,-0.3231153
24.85,-0.3364555
24.9,-0.3054366
24.95,-0.3129341
25,-0.262666
25.05,-0.2836149
25.1,-0.3648927
25.15,-0.2603872
25.2,1.444258E-02
25.25,0.25473
25.3,0.3224792
25.35,0.3660324
25.4,0.3492948
25.45,0.2574477
25.5,0.0544452
25.55,-9.610328E-02
25.6,-0.1397004
25.65,-0.1659033
25.7,-0.2777065
25.75,-0.3804902
25.8,-0.2942238
25.85,-0.2765683
25.9,-0.3442737
25.95,-0.3938892
26,-0.4009208
26.05,-0.4042239
26.1,-0.429778
26.15,-0.4318396
26.2,-0.4798653
26.25,-0.4801989
26.3,-0.5034896
26.35,-0.4762192
26.4,-0.387142
26.45,-0.3010112
26.5,-0.2846801
26.55,-0.3012945
26.6,-0.2448812
26.65,-0.2398744
26.7,-0.2627959
26.75,-0.2756019
26.8,-0.2838264
26.85,-0.2994977
26.9,-0.3158032
26.95,-0.3205189
27,-0.3020981
27.05,-0.240037
27.1,-0.2684857
27.15,-0.2807349
27.2,-0.2472662
27.25,-0.2012922
27.3,-0.1739176
27.35,-0.1579071
27.4,-0.172027
27.45,-0.2300241
27.5,-0.3045123
27.55,-0.2987282
27.6,-0.2116224
27.65,-0.1219144
27.7,-9.938227E-02
27.75,-0.1167051
27.8,-0.2144728
27.85,-0.2821636
27.9,-0.3907816
27.95,-0.431834
28,-0.4216758
28.05,-0.3976188
28.1,-0.3720574
28.15,-0.3825262
28.2,-0.3048327
28.25,-0.330384
28.3,-0.3381353
28.35,-0.4203477
28.4,-0.4992189
28.45,-0.5136496
28.5,-0.4880217
28.55,-0.4312626
28.6,-0.4443941
28.65,-0.3955473
28.7,-0.4353464
28.75,-0.5075554
28.8,-0.5782579
28.85,-0.6035758
28.9,-0.5612054
28.95,-0.5220588
29,-0.4527171
29.05,-0.4238316
29.1,-0.4103118
29.15,-0.4529785
29.2,-0.5003023
29.25,-0.500766
29.3,-0.4638759
29.35,-0.4431993
29.4,-0.4333143
29.45,-0.3407058
29.5,-0.3644117
29.55,-0.4156374
29.6,-0.4649525
29.65,-0.4778393
29.7,-0.4463642
29.75,-0.4764307
29.8,-0.5798622
29.85,-0.5994131
29.9,-0.5509585
29.95,-0.5306528
30,-0.4702893
30.05,-0.3527262
30.1,-0.2697818
30.15,-0.3074861
30.2,-0.4502492
30.25,-0.4931724
30.3,-0.5336616
30.35,-0.5268136
30.4,-0.5044414
30.45,-0.4975656
30.5,-0.5291389
30.55,-0.6376252
30.6,-0.6907924
30.65,-0.6784858
30.7,-0.6812454
30.75,-0.7012186
30.8,-0.6356518
30.85,-0.5134861
30.9,-0.4453856
30.95,-0.4226751
31,-0.4451568
31.05,-0.4224561
31.1,-0.5743581
31.15,-0.6360459
31.2,-0.5515456
31.25,-0.4199072
31.3,-0.3618389
31.35,-0.3711269
31.4,-0.1115711
31.45,-3.242806E-02
31.5,-6.331016E-03
31.55,-0.1220958
31.6,-0.2646308
31.65,-0.4187795
31.7,-0.6180614
31.75,-0.7371373
31.8,-0.7018719
31.85,-0.5586295
31.9,-0.5634885
31.95,-0.4753056
32,-0.4194601
32.05,-0.4502243
32.1,-0.4996625
32.15,-0.5596187
32.2,-0.5979163
32.25,-0.7221645
32.3,-0.6761982
32.35,-0.572533
32.4,-0.5056449
32.45,-0.4799846
32.5,-0.4761446
32.55,-0.5356652
32.6,-0.6673089
32.65,-0.6751783
32.7,-0.6906495
32.75,-0.612155
32.8,-0.5553682
32.85,-0.5375478
32.9,-0.4984488
32.95,-0.4793042
33,-0.608076
33.05,-0.7209806
33.1,-0.688308
33.15,-0.6863607
33.2,-0.7232736
33.25,-0.6327543
33.3,-0.3622325
33.35,-0.1746843
33.4,-0.2164982
33.45,-0.229332
33.5,-0.3403399
33.55,-0.4014857
33.6,-0.5002086
33.65,-0.6038862
33.7,-0.6057374
33.75,-0.548399
33.8,-0.6907693
33.85,-0.5861791
33.9,-0.4041441
33.95,-0.342166
34,-0.2944176
34.05,-0.287066
34.1,-0.3897372
34.15,-0.5155936
34.2,-0.6568151
34.25,-0.414934
34.3,0.2622251
34.35,1.646816
34.4,4.210979
34.45,8.526027
34.5,15.02749
34.55,23.86417
34.6,35.09495
34.65,48.8486
34.7,63.97211
34.75,79.41796
34.8,94.32006
34.85,107.5436
34.9,117.9036
34.95,124.3675
35,125.53
35.05,119.8668
35.1,109.1273
35.15,94.63321
35.2,78.05209
35.25,61.12269
35.3,45.40569
35.35,32.06733
35.4,21.71914
35.45,14.15844
35.5,8.852908
35.55,5.299481
35.6,3.008697
35.65,1.490141
35.7,0.4528277
35.75,-0.1318779
35.8,-0.388854
35.85,-0.5171716
35.9,-0.6025878
35.95,-0.6555545
36,-0.7496557
36.05,-0.8024861
36.1,-0.7817116
36.15,-0.8048977
36.2,-0.7345653
36.25,-0.7977223
36.3,-0.8100501
36.35,-0.801568
36.4,-0.8264017
36.45,-0.8907605
36.5,-0.9266782
36.55,-0.8736967
36.6,-0.8908132
36.65,-0.8542494
36.7,-0.9356047
36.75,-0.907786
36.8,-0.8665131
36.85,-0.8332488
36.9,-0.7934995
36.95,-0.7639409
37,-0.6545492
37.05,-0.7637647
37.1,-0.8688497
37.15,-0.9907199
37.2,-1.013144
37.25,-0.9523971
37.3,-0.8979025
37.35,-0.8952889
37.4,-0.9320158
37.45,-0.8926229
37.5,-1.0056
37.55,-0.9604298
37.6,-0.8275871
37.65,-0.6824864
37.7,-0.6087445
37.75,-0.6962001
37.8,-0.8646077
37.85,-0.9737565
37.9,-0.9747417
37.95,-1.03148
38,-0.9775906
38.05,-0.8909118
38.1,-0.8419934
38.15,-0.7498083
38.2,-0.7360467
38.25,-0.6927266
38.3,-0.7681614
38.35,-0.8118435
38.4,-0.8864518
38.45,-0.9650643
38.5,-1.044352
38.55,-1.145259
38.6,-1.052725
38.65,-1.081115
38.7,-1.082417
38.75,-1.104553
38.8,-1.025649
38.85,-0.9270633
38.9,-0.9303924
38.95,-1.016117
39,-1.046478
39.05,-0.9703635
39.1,-0.9954484
39.15,-0.9817516
39.2,-1.006197
39.25,-0.8203523
39.3,-0.4568648
39.35,-0.3331157
39.4,-0.4176911
39.45,-0.6199589
39.5,-0.8069368
39.55,-1.006443
39.6,-1.13557
39.65,-1.134127
39.7,-0.9544278
39.75,-0.6906839
39.8,-0.7909703
39.85,-0.9260471
39.9,-1.029721
39.95,-0.9510573
40,-0.9052565
40.05,-0.9128467
40.1,-0.9261185
40.15,-0.9472916
40.2,-0.9620879
40.25,-1.054005
40.3,-0.9753682
40.35,-0.8956257
40.4,-0.8076751
40.45,-0.7934526
40.5,-0.8516343
40.55,-0.8984214
40.6,-1.004757
40.65,-1.076869
40.7,-1.147251
40.75,-1.086167
40.8,-1.055995
40.85,-1.029574
40.9,-0.9757999
40.95,-0.9418191
41,-0.9152716
41.05,-1.058466
41.1,-1.070567
41.15,-1.027054
41.2,-0.9386159
41.25,-0.9067574
41.3,-0.9320317
41.35,-0.934208
41.4,-0.9832172
41.45,-0.9478852
41.5,-1.033725
41.55,-0.9681658
41.6,-0.958039
41.65,-0.9725067
41.7,-0.9940369
41.75,-1.06233
41.8,-1.042478
41.85,-1.066229
41.9,-1.009808
41.95,-1.090182
42,-1.092512
42.05,-1.087419
42.1,-1.134746
42.15,-1.187408
42.2,-1.279174
42.25,-1.257334
42.3,-1.213222
42.35,-1.135937
42.4,-1.152584
42.45,-1.126894
42.5,-1.081229
42.55,-1.15497
42.6,-1.179968
42.65,-1.18101
42.7,-1.145141
42.75,-1.06292
42.8,-1.027778
42.85,-1.044138
42.9,-1.042124
42.95,-1.010339
43,-1.093334
43.05,-1.097328
43.1,-1.109843
43.15,-1.116675
43.2,-1.109139
43.25,-1.125309
43.3,-1.144889
43.35,-1.123766
43.4,-1.115092
43.45,-1.161755
43.5,-1.144466
43.55,-1.174492
43.6,-1.113488
43.65,-1.073835
43.7,-0.9808621
43.75,-0.7353668
43.8,-0.6188403
43.85,-0.1143062
43.9,6.979523E-02
43.95,9.108873E-03
44,-0.2493441
44.05,-0.5825027
44.1,-0.9247423
44.15,-1.195015
44.2,-1.205203
44.25,-1.279354
44.3,-1.007451
44.35,-1.021345
44.4,-1.058024
44.45,-0.9094976
44.5,-0.6717755
44.55,-0.5670035
44.6,-0.6068642
44.65,-0.7332812
44.7,-0.8999879
44.75,-0.9749421
44.8,-1.087013
44.85,-1.018868
44.9,-0.7390943
44.95,-0.5003066
45,-0.5352839
45.05,-0.7238731
45.1,-0.935107
45.15,-1.115041
45.2,-1.187566
45.25,-1.216302
45.3,-1.16313
45.35,-1.045553
45.4,-1.116005
45.45,-1.060569
45.5,-1.032534
45.55,-1.014897
45.6,-0.999145
45.65,-1.010901
45.7,-1.045918
45.75,-1.096244
45.8,-1.193246
45.85,-1.292918
45.9,-1.119874
45.95,-1.059416
46,-1.067193
46.05,-1.062921
46.1,-1.038726
46.15,-1.037954
46.2,-1.079222
46.25,-1.152304
46.3,-1.17786
46.35,-1.231482
46.4,-1.122764
46.45,-0.9564992
46.5,-0.8221179
46.55,-0.7574189
46.6,-0.8276312
46.65,-0.9612118
46.7,-1.10518
46.75,-1.227547
46.8,-1.259474
46.85,-1.157267
46.9,-1.075962
46.95,-1.134813
47,-1.185391
47.05,-1.233373
47.1,-1.209631
47.15,-1.168741
47.2,-1.161736
47.25,-1.09793
47.3,-0.9902695
47.35,-0.9485149
47.4,-1.032849
47.45,-1.142065
47.5,-1.250951
47.55,-1.304778
47.6,-1.335105
47.65,-1.310591
47.7,-1.2285
47.75,-1.145119
47.8,-1.142025
47.85,-1.231785
47.9,-1.223383
47.95,-1.192413
48,-1.09786
48.05,-1.023016
48.1,-0.9955981
48.15,-0.9951028
48.2,-1.027471
48.25,-1.118106
48.3,-1.144449
48.35,-1.120222
48.4,-1.099036
48.45,-1.061159
48.5,-1.043439
48.55,-1.091729
48.6,-1.176452
48.65,-1.224531
48.7,-1.190963
48.75,-1.154305
48.8,-1.133271
48.85,-1.097387
48.9,-1.074271
48.95,-1.124548
49,-1.254097
49.05,-1.334274
49.1,-1.214109
49.15,-1.168489
49.2,-1.187697
49.25,-1.229857
49.3,-1.125856
49.35,-0.8780308
49.4,-0.7632146
49.45,-0.7291917
49.5,-0.7445668
49.55,-0.8097866
49.6,-1.017882
49.65,-1.188627
49.7,-1.25139
49.75,-1.214604
49.8,-1.098129
49.85,-1.115322
49.9,-1.108295
49.95,-1.114017
50,-1.155398
50.05,-1.231428
50.1,-1.308365
50.15,-1.366877
50.2,-1.403798
50.25,-1.323665
50.3,-1.223359
50.35,-1.183815
50.4,-1.10234
50.45,-1.057516
50.5,-1.078992
50.55,-1.125072
50.6,-1.143652
50.65,-1.134645
50.7,-1.125427
50.75,-1.11001
50.8,-1.131496
50.85,-1.116673
50.9,-1.068594
50.95,-1.049446
51,-1.09455
51.05,-1.150956
51.1,-1.232125
51.15,-1.190522
51.2,-1.160895
51.25,-1.143955
51.3,-1.122738
51.35,-1.102857
51.4,-1.110507
51.45,-1.159433
51.5,-1.189197
51.55,-1.242233
51.6,-1.226918
51.65,-1.233625
51.7,-1.245074
51.75,-1.236313
51.8,-1.239368
51.85,-1.191911
51.9,-1.213765
51.95,-1.21969
52,-1.261907
52.05,-1.248911
52.1,-1.216349
52.15,-1.207983
52.2,-1.193373
52.25,-1.192581
52.3,-1.132497
52.35,-1.102445
52.4,-1.075695
52.45,-1.128948
52.5,-1.208449
52.55,-1.258762
52.6,-1.303324
52.65,-1.32153
52.7,-1.188497
52.75,-0.9449218
52.8,-0.8296346
52.85,-0.8324827
52.9,-0.9412498
52.95,-1.100757
53,-1.218017
53.05,-1.300383
53.1,-1.396769
53.15,-1.3236
53.2,-1.272124
53.25,-1.233122
53.3,-1.199968
53.35,-1.173722
53.4,-1.152078
53.45,-1.149128
53.5,-1.188895
53.55,-1.277718
53.6,-1.366102
53.65,-1.409891
53.7,-1.384085
53.75,-1.334915
53.8,-1.326474
53.85,-1.291368
53.9,-1.228581
53.95,-1.164557
54,-1.121024
54.05,-1.167661
54.1,-1.200055
54.15,-1.192498
54.2,-1.23946
54.25,-1.278922
54.3,-1.248025
54.35,-1.200062
54.4,-1.228316
54.45,-1.273056
54.5,-1.346871
54.55,-1.384471
54.6,-1.301172
54.65,-1.262896
54.7,-1.147362
54.75,-1.115143
54.8,-1.161882
54.85,-1.236291
54.9,-1.340842
54.95,-1.465007
55,-1.542734
55.05,-1.495283
55.1,-1.45371
55.15,-1.365291
55.2,-1.30653
55.25,-1.216641
55.3,-1.157061
55.35,-1.198527
55.4,-1.308224
55.45,-1.348751
55.5,-1.333349
55.55,-1.277666
55.6,-1.200016
55.65,-1.19444
55.7,-1.214165
55.75,-1.230576
55.8,-1.259959
55.85,-1.245427
55.9,-1.252734
55.95,-1.299373
56,-1.257272
56.05,-1.139513
56.1,-1.040114
56.15,-0.9919446
56.2,-0.9728665
56.25,-1.021956
56.3,-1.083644
56.35,-1.21793
56.4,-1.255214
56.45,-1.222262
56.5,-1.201139
56.55,-1.224154
56.6,-1.256502
56.65,-1.259966
56.7,-1.256453
56.75,-1.237975
56.8,-1.286506
56.85,-1.361342
56.9,-1.438682
56.95,-1.500245
57,-1.514681
57.05,-1.441846
57.1,-1.302029
57.15,-1.270459
57.2,-1.226203
57.25,-1.292874
57.3,-1.362934
57.35,-1.367149
57.4,-1.355248
57.45,-1.359115
57.5,-1.324318
57.55,-1.290254
57.6,-1.318016
57.65,-1.329858
57.7,-1.351761
57.75,-1.341646
57.8,-1.265688
57.85,-1.267889
57.9,-1.239223
57.95,-1.057967
58,-0.9293315
58.05,-0.8826568
58.1,-0.9214399
58.15,-1.026734
58.2,-1.144888
58.25,-1.208448
58.3,-1.321337
58.35,-1.363519
58.4,-1.352868
58.45,-1.376189
58.5,-1.3737
58.55,-1.340011
58.6,-1.327991
58.65,-1.319993
58.7,-1.248634
58.75,-1.278128
58.8,-1.313961
58.85,-1.338345
58.9,-1.361705
58.95,-1.36238
59,-1.340696
59.05,-1.372277
59.1,-1.363366
59.15,-1.265574
59.2,-1.250601
59.25,-1.269463
59.3,-1.30435
59.35,-1.332627
59.4,-1.331229
59.45,-1.31622
59.5,-1.379924
59.55,-1.307034
59.6,-1.226311
59.65,-1.2157
59.7,-1.224011
59.75,-1.233005
59.8,-1.270104
59.85,-1.347839
59.9,-1.523871
59.95,-1.640051
60,-1.409733
60.05,-1.163943
60.1,-1.016221
60.15,-0.9650019
60.2,-1.005213
60.25,-1.164197
60.3,-1.390242
60.35,-1.552866
60.4,-1.519311
60.45,-1.383604
60.5,-1.305185
60.55,-1.300778
60.6,-1.302718
60.65,-1.312433
60.7,-1.369913
60.75,-1.44889
60.8,-1.485643
60.85,-1.483642
60.9,-1.459622
60.95,-1.411854
61,-1.365713
61.05,-1.389322
61.1,-1.418071
61.15,-1.505096
61.2,-1.515012
61.25,-1.509185
61.3,-1.481857
61.35,-1.460844
61.4,-1.445242
61.45,-1.372743
61.5,-1.390456
61.55,-1.274243
61.6,-1.174864
61.65,-1.12335
61.7,-1.152148
61.75,-1.236204
61.8,-1.348809
61.85,-1.484926
61.9,-1.466879
61.95,-1.480666
62,-1.409375
62.05,-1.385867
62.1,-1.369844
62.15,-1.374241
62.2,-1.430382
62.25,-1.504714
62.3,-1.60868
62.35,-1.549488
62.4,-1.543237
62.45,-1.516671
62.5,-1.51181
62.55,-1.496685
62.6,-1.463758
62.65,-1.504986
62.7,-1.552711
62.75,-1.585759
62.8,-1.540319
62.85,-1.511107
62.9,-1.510403
62.95,-1.559588
63,-1.631412
63.05,-1.649507
63.1,-1.724697
63.15,-1.660645
63.2,-1.605272
63.25,-1.561841
63.3,-1.521249
63.35,-1.499313
63.4,-1.500109
63.45,-1.490431
63.5,-1.454622
63.55,-1.369491
63.6,-1.103951
63.65,-1.005529
63.7,-0.9525533
63.75,-0.9965796
63.8,-1.202286
63.85,-1.441065
63.9,-1.68432
63.95,-1.775022
64,-1.415538
64.05,-1.072006
64.1,-0.9115944
64.15,-0.8387862
64.2,-0.8329614
64.25,-1.019243
64.3,-1.114169
64.35,-1.28506
64.4,-1.343157
64.45,-1.336876
64.5,-1.468471
64.55,-1.63506
64.6,-1.662301
64.65,-1.587162
64.7,-1.575088
64.75,-1.551576
64.8,-1.580598
64.85,-1.552604
64.9,-1.523816
64.95,-1.506458
65,-1.49701
65.05,-1.505045
65.1,-1.471073
65.15,-1.551441
65.2,-1.644892
65.25,-1.73787
65.3,-1.669986
65.35,-1.590689
65.4,-1.591857
65.45,-1.541975
65.5,-1.575339
65.55,-1.417208
65.6,-1.406719
65.65,-1.453408
65.7,-1.473465
65.75,-1.432306
65.8,-1.414699
65.85,-1.512118
65.9,-1.508822
65.95,-1.560834
66,-1.505481
66.05,-1.526716
66.1,-1.534209
66.15,-1.521519
66.2,-1.5156
66.25,-1.519004
66.3,-1.58082
66.35,-1.562521
66.4,-1.59391
66.45,-1.598469
66.5,-1.574278
66.55,-1.50923
66.6,-1.448312
66.65,-1.445787
66.7,-1.372964
66.75,-1.460533
66.8,-1.491223
66.85,-1.565947
66.9,-1.535794
66.95,-1.488394
67,-1.499718
67.05,-1.510715
67.1,-1.563414
67.15,-1.562425
67.2,-1.65768
67.25,-1.680435
67.3,-1.564246
67.35,-1.335782
67.4,-1.13867
67.45,-1.109514
67.5,-1.145392
67.55,-1.354061
67.6,-1.498799
67.65,-1.682234
67.7,-1.748129
67.75,-1.691806
67.8,-1.611945
67.85,-1.583695
67.9,-1.585045
67.95,-1.618064
68,-1.698269
68.05,-1.660975
68.1,-1.610363
68.15,-1.547016
68.2,-1.515008
68.25,-1.502392
68.3,-1.130653
68.35,-0.8406714
68.4,-0.8134183
68.45,-0.9231356
68.5,-1.049792
68.55,-1.215845
68.6,-1.418363
68.65,-1.565486
68.7,-1.577559
68.75,-1.276339
68.8,-1.323039
68.85,-1.381425
68.9,-1.421624
68.95,-1.418561
69,-1.405099
69.05,-1.43132
69.1,-1.433754
69.15,-1.521403
69.2,-1.459974
69.25,-1.508242
69.3,-1.524368
69.35,-1.5341
69.4,-1.555737
69.45,-1.541639
69.5,-1.516812
69.55,-1.476213
69.6,-1.505775
69.65,-1.492487
69.7,-1.501056
69.75,-1.500344
69.8,-1.483758
69.85,-1.461956
69.9,-1.350784
69.95,-1.304756
70,-1.192926
70.05,-1.194871
70.1,-1.196159
70.15,-1.221192
70.2,-1.297681
70.25,-1.387522
70.3,-1.441629
70.35,-1.380921
70.4,-1.352055
70.45,-1.317966
70.5,-1.364335
70.55,-1.398925
70.6,-1.435561
70.65,-1.539716
70.7,-1.554477
70.75,-1.556307
70.8,-1.476712
70.85,-1.458917
70.9,-1.470315
70.95,-1.499621
71,-1.456392
71.05,-1.324057
71.1,-1.34879
71.15,-1.27414
71.2,-1.238943
71.25,-1.20988
71.3,-1.242167
71.35,-1.331819
71.4,-1.42634
71.45,-1.466995
71.5,-1.452345
71.55,-1.576358
71.6,-1.506667
71.65,-1.44715
71.7,-1.341815
71.75,-1.275688
71.8,-1.272263
71.85,-1.284674
71.9,-1.323521
71.95,-1.34372
72,-1.420476
72.05,-1.466416
72.1,-1.497077
72.15,-1.464317
72.2,-1.401388
72.25,-1.364269
72.3,-1.306638
72.35,-1.365383
72.4,-1.475762
72.45,-1.365397
72.5,-1.088172
72.55,-0.86241
72.6,-0.7599146
72.65,-0.7462898
72.7,-0.8868949
72.75,-1.198167
72.8,-1.512783
72.85,-1.625926
72.9,-1.563831
72.95,-1.440987
73,-1.360967
73.05,-1.33213
73.1,-1.272266
73.15,-1.265359
73.2,-1.321869
73.25,-1.294853
73.3,-1.253993
73.35,-1.254202
73.4,-1.24028
73.45,-1.180337
73.5,-1.189458
73.55,-1.164771
73.6,-1.158664
73.65,-1.25253
73.7,-1.348021
73.75,-1.381579
73.8,-1.388548
73.85,-1.422954
73.9,-1.460529
73.95,-1.503345
74,-1.424122
74.05,-1.376308
74.1,-1.401201
74.15,-1.394701
74.2,-1.316694
74.25,-1.247556
74.3,-1.280803
74.35,-1.244285
74.4,-1.258344
74.45,-1.252079
74.5,-1.219803
74.55,-1.185916
74.6,-1.133268
74.65,-1.051997
74.7,-0.9739087
74.75,-0.7781478
74.8,-0.712146
74.85,-0.8173973
74.9,-0.8829174
74.95,-0.9609336
75,-1.051397
75.05,-1.090258
75.1,-1.068453
75.15,-1.01491
75.2,-0.9182619
75.25,-0.9186305
75.3,-0.9223819
75.35,-0.8829337
75.4,-0.8504753
75.45,-0.8380303
75.5,-0.7694582
75.55,-0.8395092
75.6,-0.8093649
75.65,-0.6995861
75.7,-0.6180396
75.75,-0.5394285
75.8,-0.4505245
75.85,-0.3938778
75.9,-0.4135267
75.95,-0.4124179
76,-0.5699328
76.05,-0.6994388
76.1,-0.7788494
76.15,-0.7501565
76.2,-0.6132025
76.25,-0.3996712
76.3,-0.161775
76.35,-0.1145152
76.4,-7.898004E-02
76.45,-0.167018
76.5,-0.2456021
76.55,-0.2337611
76.6,-0.2360079
76.65,-0.3320654
76.7,-0.4181454
76.75,-0.4656796
76.8,-0.4561946
76.85,-0.2503778
76.9,3.549953E-02
76.95,0.3143812
77,0.4314933
77.05,0.3133644
77.1,9.966819E-02
77.15,3.299515E-02
77.2,0.1713151
77.25,0.1864891
77.3,0.2027626
77.35,0.2557708
77.4,0.1582096
77.45,-0.0583454
77.5,-5.647495E-02
77.55,-0.1322713
77.6,-1.378098E-02
77.65,0.1761428
77.7,0.1782675
77.75,0.2265531
77.8,0.2509515
77.85,0.1828072
77.9,0.2119524
77.95,0.2321587
78,0.2483207
78.05,0.2388407
78.1,0.1014595
78.15,-6.082411E-03
78.2,6.372713E-02
78.25,0.2929031
78.3,0.5441299
78.35,0.8366426
78.4,0.7121326
78.45,0.5667678
78.5,0.2622068
78.55,0.1894688
78.6,0.4938794
78.65,0.8996681
78.7,1.042839
78.75,1.180912
78.8,1.222232
78.85,1.317972
78.9,1.357425
78.95,1.245026
79,1.172951
79.05,1.193617
79.1,1.043561
79.15,0.6959417
79.2,0.7508876
79.25,1.18697
79.3,1.67496
79.35,2.078012
79.4,2.5141
79.45,2.854841
79.5,2.767542
79.55,2.676733
79.6,2.585344
79.65,2.886274
79.7,3.42001
79.75,3.627311
79.8,3.619506
79.85,3.549518
79.9,3.224021
79.95,2.743698
80,2.820661
80.05,3.27228
80.1,3.713536
80.15,4.028985
80.2,4.148681
80.25,4.261857
80.3,4.630472
80.35,4.869646
80.4,4.831332
80.45,5.113181
80.5,5.310971
80.55,5.100983
80.6,4.865606
80.65,4.960405
80.7,5.277408
80.75,5.663161
80.8,6.035371
80.85,6.520097
80.9,7.092812
80.95,7.145871
81,6.982037
81.05,7.036377
81.1,7.135568
81.15,6.698202
81.2,6.831044
81.25,7.172105
81.3,7.501197
81.35,7.615441
81.4,7.576697
81.45,7.541531
81.5,7.63584
81.55,7.968194
81.6,8.164743
81.65,8.434299
81.7,8.738583
81.75,9.227177
81.8,9.597792
81.85,9.566052
81.9,9.292479
81.95,9.329142
82,9.405584
82.05,9.32553
82.1,8.923697
82.15,9.141103
82.2,9.849072
82.25,10.18155
82.3,9.710851
82.35,9.500897
82.4,10.11631
82.45,10.31364
82.5,10.86943
82.55,11.66164
82.6,12.37289
82.65,12.81718
82.7,13.03048
82.75,13.11599
82.8,12.75365
82.85,12.87078
82.9,13.304
82.95,13.74969
83,14.15958
83.05,14.65395
83.1,15.23965
83.15,15.5595
83.2,15.31364
83.25,15.32413
83.3,15.76914
83.35,15.48131
83.4,14.7381
83.45,14.24101
83.5,14.11607
83.55,13.86258
83.6,14.10136
83.65,15.45877
83.7,16.87816
83.75,17.79049
83.8,18.81955
83.85,19.92016
83.9,20.40759
83.95,20.51422
84,19.43419
84.05,19.3215
84.1,19.04757
84.15,18.64573
84.2,18.15078
84.25,17.9534
84.3,18.15095
84.35,17.65331
84.4,17.26189
84.45,17.30874
84.5,17.56314
84.55,17.41449
84.6,17.2728
84.65,17.47947
84.7,18.06823
84.75,19.21163
84.8,19.97835
84.85,20.97134
84.9,22.02621
84.95,22.66766
85,23.02038
85.05,23.61207
85.1,24.57282
85.15,25.17647
85.2,26.56865
85.25,26.62138
85.3,27.67758
85.35,28.72293
85.4,28.52037
85.45,27.87424
85.5,28.29709
85.55,29.01006
85.6,28.23007
85.65,27.72723
85.7,27.24528
85.75,27.10595
85.8,27.13863
85.85,27.1304
85.9,27.43973
85.95,28.94495
86,30.31319
86.05,31.60742
86.1,32.12177
86.15,32.68515
86.2,32.44707
86.25,31.03349
86.3,29.49357
86.35,29.58083
86.4,31.56996
86.45,33.54735
86.5,33.70364
86.55,33.13484
86.6,32.02443
86.65,31.2236
86.7,31.61955
86.75,32.8562
86.8,36.02631
86.85,38.61406
86.9,39.79333
86.95,40.22845
87,41.13644
87.05,42.19377
87.1,42.76665
87.15,43.69737
87.2,43.5773
87.25,42.92231
87.3,43.0544
87.35,43.99865
87.4,45.47799
87.45,46.98527
87.5,47.49835
87.55,45.94881
87.6,44.69131
87.65,43.26256
87.7,41.15204
87.75,42.77575
87.8,45.8367
87.85,47.89536
87.9,49.19584
87.95,51.20428
88,51.29344
88.05,52.1938
88.1,50.99201
88.15,50.13056
88.2,49.89497
88.25,49.89218
88.3,49.88451
88.35,49.78753
88.4,48.99633
88.45,47.22741
88.5,48.84054
88.55,51.13418
88.6,54.7014
88.65,58.0008
88.7,58.61148
88.75,56.56489
88.8,52.70789
88.85,52.22603
88.9,53.84724
88.95,56.01754
89,57.80109
89.05,60.21299
89.1,63.25899
89.15,64.52251
89.2,66.75443
89.25,66.96675
89.3,69.01718
89.35,70.8321
89.4,72.89385
89.45,75.67651
89.5,78.93261
89.55,82.17255
89.6,85.39647
89.65,93.3229
89.7,97.8522
89.75,103.0354
89.8,106.1879
89.85,107.8559
89.9,108.9903
89.95,107.9332
90,110.6191
90.05,113.4281
90.1,112.9163
90.15,108.8547
90.2,101.5648
90.25,92.36142
90.3,82.74158
90.35,73.87277
90.4,67.77716
90.45,65.83659
90.5,61.82426
90.55,59.28587
90.6,55.94596
90.65,51.47553
90.7,48.55211
90.75,48.97886
90.8,46.76137
90.85,46.28362
90.9,42.02442
90.95,38.05642
91,36.48023
91.05,35.90936
91.1,35.62854
91.15,37.2003
91.2,37.27607
91.25,35.00484
91.3,33.53858
91.35,32.33091
91.4,31.42443
91.45,30.8877
91.5,29.63837
91.55,26.00885
91.6,21.57793
91.65,20.73948
91.7,20.94995
91.75,20.86468
91.8,20.97666
91.85,20.29469
91.9,18.64851
91.95,17.71875
92,16.66637
92.05,15.64601
92.1,18.60876
92.15,19.9944
92.2,19.39973
92.25,18.2599
92.3,17.50187
92.35,16.9549
92.4,17.05063
92.45,15.79347
92.5,14.90773
92.55,15.1267
92.6,14.56725
92.65,13.34803
92.7,12.4736
92.75,12.00534
92.8,11.28141
92.85,10.8471
92.9,9.697752
92.95,8.507831
93,7.340052
93.05,6.417818
93.1,5.594359
93.15,4.537259
93.2,4.301903
93.25,5.220854
93.3,6.538248
93.35,6.397184
93.4,5.289112
93.45,4.236876
93.5,3.655452
93.55,3.194991
93.6,2.703119
93.65,2.215993
93.7,1.576633
93.75,1.524607
93.8,1.108663
93.85,1.229815
93.9,2.185736
93.95,2.630751
94,2.474894
94.05,2.215194
94.1,1.543637
94.15,1.7427
94.2,2.126627
94.25,2.209875
94.3,1.998249
94.35,1.529143
94.4,0.3454072
94.45,0.9346097
94.5,1.186359
94.55,1.026081
94.6,0.8020436
94.65,0.4027196
94.7,-0.174873
94.75,-0.6158899
94.8,-0.8793761
94.85,-0.5940161
94.9,-0.3280714
94.95,-0.2454144
95,-0.2860143
95.05,-0.2186025
95.1,-0.1798946
95.15,-0.3705806
95.2,0.0207238
95.25,0.4817422
95.3,0.3795811
95.35,0.1113146
95.4,-7.447466E-02
95.45,-0.4506273
95.5,-1.057082
95.55,-1.474579
95.6,-1.422719
95.65,-0.3962339
95.7,-0.2603319
95.75,-0.4119886
95.8,-0.4742654
95.85,-0.4039156
95.9,-0.3660164
95.95,-0.5507929
96,-0.9808582
96.05,-0.8650483
96.1,-1.303378
96.15,-1.794254
96.2,-1.722444
96.25,-1.273597
96.3,-0.8447752
96.35,-0.695291
96.4,-1.068447
96.45,-1.312083
96.5,-1.507896
96.55,-2.110252
96.6,-2.04239
96.65,-1.430688
96.7,-0.9231628
96.75,-0.7984926
96.8,-0.7249703
96.85,-0.9922582
96.9,-1.31471
96.95,-1.819722
97,-2.120919
97.05,-2.175103
97.1,-2.061756
97.15,-1.933637
97.2,-2.069899
97.25,-1.299945
97.3,-1.047675
97.35,-1.165658
97.4,-1.43941
97.45,-1.86503
97.5,-2.39574
97.55,-2.737591
97.6,-2.477257
97.65,-2.41662
97.7,-2.014987
97.75,-1.978681
97.8,-1.999465
97.85,-2.074238
97.9,-2.27009
97.95,-2.423958
98,-2.15566
98.05,-1.881625
98.1,-1.980722
98.15,-2.163712
98.2,-2.295048
98.25,-2.493203
98.3,-2.708134
98.35,-2.692938
98.4,-2.347464
98.45,-1.90258
98.5,-1.845689
98.55,-2.019841
98.6,-2.238664
98.65,-2.375496
98.7,-2.400607
98.75,-2.329967
98.8,-2.172279
98.85,-2.184206
98.9,-2.343965
98.95,-2.548395
99,-2.609935
 
Alignment,On
